Time (fs);Temporal profile (arb. u.);FTL temporal profile (arb. u.);Temporal phase (rad)
-17333.925;0.00294;0.00162;-19.0113
-17060.9498;0.00253;0.00198;-17.5912
-16787.97461;0.01678;0.00245;-16.7442
-16514.99941;0.05538;0.00209;-16.4577
-16242.02421;0.10553;0.00098;-16.2909
-15969.04902;0.13515;0.00034;-16.1707
-15696.07382;0.12396;0.00105;-16.0712
-15423.09862;0.08265;0.00256;-15.9841
-15150.12343;0.03817;0.00358;-15.9047
-14877.14823;0.01043;0.00349;-15.8412
-14604.17303;0.00084;0.0026;-15.9112
-14331.19783;0.00021;0.00165;-18.3117
-14058.22264;0.00046;0.00107;-18.504
-13785.24744;0.00008;0.00081;-19.2477
-13512.27224;0.00054;0.00068;-20.491
-13239.29705;0.00151;0.00057;-20.3148
-12966.32185;0.00173;0.00048;-19.8843
-12693.34665;0.00122;0.00039;-19.2779
-12420.37146;0.00065;0.00032;-18.5245
-12147.39626;0.00025;0.00035;-17.7671
-11874.42106;0.00001;0.00053;-16.8915
-11601.44587;0.00011;0.00098;-13.6704
-11328.47067;0.00031;0.00184;-13.1364
-11055.49547;0.00027;0.00318;-12.6392
-10782.52028;0.00008;0.00493;-12.0255
-10509.54508;0.00001;0.00701;-10.2192
-10236.56988;0.00007;0.00948;-9.1534
-9963.59469;0.00011;0.01223;-8.98897
-9690.61949;0.00015;0.01448;-9.08396
-9417.64429;0.00021;0.01523;-9.07502
-9144.66909;0.00023;0.01401;-8.79799
-8871.6939;0.00023;0.01122;-8.15376
-8598.7187;0.00042;0.00781;-7.40367
-8325.7435;0.00102;0.00471;-6.94298
-8052.76831;0.00201;0.00256;-6.67739
-7779.79311;0.00308;0.0014;-6.50014
-7506.81791;0.00371;0.00089;-6.36483
-7233.84272;0.00364;0.00071;-6.23204
-6960.86752;0.00305;0.00068;-6.05184
-6687.89232;0.00252;0.00069;-5.77928
-6414.91713;0.003;0.00065;-5.42724
-6141.94193;0.00633;0.00055;-5.09866
-5868.96673;0.01688;0.0005;-4.82332
-5595.99154;0.04041;0.00053;-4.5591
-5323.01634;0.07821;0.0007;-4.28315
-5050.04114;0.12412;0.00108;-3.98094
-4777.06594;0.17009;0.00161;-3.64153
-4504.09075;0.21293;0.00207;-3.2642
-4231.11555;0.25432;0.00231;-2.868
-3958.14035;0.29711;0.00231;-2.48088
-3685.16516;0.34171;0.00224;-2.1262
-3412.18996;0.38931;0.00216;-1.81093
-3139.21476;0.44237;0.00202;-1.53267
-2866.23957;0.50583;0.00163;-1.28528
-2593.26437;0.5796;0.00115;-1.06394
-2320.28917;0.65907;0.00159;-0.8654
-2047.31398;0.73318;0.00457;-0.68709
-1774.33878;0.80232;0.01139;-0.52312
-1501.36358;0.87368;0.02337;-0.37314
-1228.38839;0.94658;0.04576;-0.24399
-955.41319;0.99668;0.10109;-0.14485
-682.43799;1;0.24326;-0.07571
-409.4628;0.94543;0.51809;-0.03335
-136.4876;0.83588;0.84478;-0.01186
136.4876;0.68288;1;-0.00496
409.4628;0.49436;0.84478;0
682.43799;0.2921;0.51809;0
955.41319;0.1265;0.24326;-0.05827
1228.38839;0.04338;0.10109;-0.34375
1501.36358;0.02644;0.04576;-0.81878
1774.33878;0.02095;0.02337;-0.89708
2047.31398;0.0069;0.01139;-0.68759
2320.28917;0.00034;0.00457;-1.58534
2593.26437;0.00553;0.00159;-1.90003
2866.23957;0.02316;0.00115;-0.92345
3139.21476;0.07634;0.00163;0.00767
3412.18996;0.17691;0.00202;0.83088
3685.16516;0.2949;0.00216;1.62307
3958.14035;0.39388;0.00224;2.41689
4231.11555;0.46699;0.00231;3.19762
4504.09075;0.518;0.00231;3.92625
4777.06594;0.54009;0.00207;4.5743
5050.04114;0.53211;0.00161;5.1424
5323.01634;0.50739;0.00108;5.65183
5595.99154;0.4807;0.0007;6.12494
5868.96673;0.45832;0.00053;6.57339
6141.94193;0.44002;0.0005;6.99943
6414.91713;0.42455;0.00055;7.40256
6687.89232;0.40979;0.00065;7.78327
6960.86752;0.39627;0.00069;8.14415
7233.84272;0.38263;0.00068;8.48481
7506.81791;0.35884;0.00071;8.79914
7779.79311;0.31188;0.00089;9.08126
8052.76831;0.24142;0.0014;9.32423
8325.7435;0.16377;0.00256;9.51302
8598.7187;0.09988;0.00471;9.62379
8871.6939;0.05969;0.00781;9.65681
9144.66909;0.03703;0.01122;9.68806
9417.64429;0.02073;0.01401;9.81774
9690.61949;0.0079;0.01523;10.0843
9963.59469;0.00126;0.01448;10.5538
10236.56988;0.0001;0.01223;12.7635
10509.54508;0.0006;0.00948;13.9141
10782.52028;0.0007;0.00701;14.4654
11055.49547;0.00057;0.00493;14.9953
11328.47067;0.00065;0.00318;15.4443
11601.44587;0.00096;0.00184;15.7836
11874.42106;0.0013;0.00098;16.1006
12147.39626;0.00133;0.00053;16.4284
12420.37146;0.00105;0.00035;16.7684
12693.34665;0.00072;0.00032;17.1139
12966.32185;0.00053;0.00039;17.4457
13239.29705;0.00051;0.00048;17.701
13512.27224;0.00063;0.00057;17.9137
13785.24744;0.00078;0.00068;18.1554
14058.22264;0.00085;0.00081;18.487
14331.19783;0.00083;0.00107;18.8953
14604.17303;0.00079;0.00165;19.3921
14877.14823;0.00075;0.0026;19.8854
15150.12343;0.00065;0.00349;20.3665
15423.09862;0.00047;0.00358;20.7843
15696.07382;0.0002;0.00256;21.1476
15969.04902;0.00002;0.00105;20.7399
16242.02421;0.00016;0.00034;19.4619
16514.99941;0.00062;0.00098;19.9336
16787.97461;0.00155;0.00209;20.5448
17060.9498;0.00326;0.00245;21.0807
17333.925;0.00446;0.00198;21.5001
